Date:	2023-08-23		
Time:	14:10		
Sample name:	MI1A_B_C		
Position:	1169.000049	mm	
Sample surface:	4.792214	cm	
Tube anode:	Mo		
Tube voltage:	30	kV	
Tube current:	30	mA	
Comments	not in position		
Gain	0.060000		
peaking_time	1.500000	m-sec	
trigger_threshold	653.076172	V	
mca_bin_width	17.500000	no:	
number_mca_channels	1024.000000	no:	
gap_time	0.080000	m-sec	
trigger_peaking_time	0.060000	m-sec	
livetime	6.154128	seconds	
runtime	10.007666	seconds	
input_count_rate	66399.487071	cps	
output_count_rate	40831.798670	cps	
triggers	0	seconds	
events_in_run	0	seconds	
channel	content		
 1.00	 0.00
 2.00	 0.00
 3.00	 0.00
 4.00	 0.00
 5.00	 0.00
 6.00	 0.00
 7.00	 0.00
 8.00	 0.00
 9.00	 0.00
10.00	 0.00
11.00	 0.00
12.00	 0.00
13.00	 0.00
14.00	 0.00
15.00	 0.00
16.00	 0.00
17.00	 0.00
18.00	 0.00
19.00	 0.00
20.00	 0.00
21.00	 0.00
22.00	 0.00
23.00	 0.00
24.00	 0.00
25.00	 0.00
26.00	 0.00
27.00	 0.00
28.00	 0.00
29.00	 0.00
30.00	 0.00
31.00	 0.00
32.00	 0.00
33.00	 1.00
34.00	 1.00
35.00	 0.00
36.00	 3.00
37.00	 1.00
38.00	 5.00
39.00	 4.00
40.00	12.00
41.00	14.00
42.00	17.00
43.00	22.00
44.00	42.00
45.00	54.00
46.00	50.00
47.00	81.00
48.00	117.00
49.00	114.00
50.00	161.00
51.00	212.00
52.00	285.00
53.00	346.00
54.00	398.00
55.00	489.00
56.00	534.00
57.00	659.00
58.00	743.00
59.00	819.00
60.00	860.00
61.00	968.00
62.00	1112.00
63.00	1125.00
64.00	1117.00
65.00	1322.00
66.00	1257.00
67.00	1346.00
68.00	1300.00
69.00	1419.00
70.00	1371.00
71.00	1432.00
72.00	1401.00
73.00	1364.00
74.00	1380.00
75.00	1355.00
76.00	1376.00
77.00	1289.00
78.00	1322.00
79.00	1308.00
80.00	1329.00
81.00	1363.00
82.00	1290.00
83.00	1321.00
84.00	1332.00
85.00	1360.00
86.00	1369.00
87.00	1348.00
88.00	1253.00
89.00	1247.00
90.00	1134.00
91.00	1139.00
92.00	1083.00
93.00	1107.00
94.00	1046.00
95.00	1028.00
96.00	1046.00
97.00	987.00
98.00	1045.00
99.00	1002.00
100.00	993.00
101.00	991.00
102.00	956.00
103.00	945.00
104.00	937.00
105.00	935.00
106.00	970.00
107.00	890.00
108.00	956.00
109.00	898.00
110.00	930.00
111.00	912.00
112.00	864.00
113.00	838.00
114.00	813.00
115.00	773.00
116.00	783.00
117.00	794.00
118.00	820.00
119.00	765.00
120.00	749.00
121.00	758.00
122.00	728.00
123.00	706.00
124.00	672.00
125.00	695.00
126.00	696.00
127.00	721.00
128.00	689.00
129.00	632.00
130.00	663.00
131.00	651.00
132.00	686.00
133.00	658.00
134.00	590.00
135.00	668.00
136.00	634.00
137.00	599.00
138.00	582.00
139.00	556.00
140.00	545.00
141.00	555.00
142.00	533.00
143.00	514.00
144.00	490.00
145.00	517.00
146.00	484.00
147.00	508.00
148.00	500.00
149.00	509.00
150.00	490.00
151.00	445.00
152.00	483.00
153.00	481.00
154.00	465.00
155.00	492.00
156.00	420.00
157.00	454.00
158.00	439.00
159.00	435.00
160.00	435.00
161.00	426.00
162.00	451.00
163.00	514.00
164.00	606.00
165.00	669.00
166.00	736.00
167.00	870.00
168.00	957.00
169.00	1006.00
170.00	1106.00
171.00	1076.00
172.00	1009.00
173.00	915.00
174.00	782.00
175.00	702.00
176.00	561.00
177.00	488.00
178.00	480.00
179.00	439.00
180.00	421.00
181.00	418.00
182.00	491.00
183.00	424.00
184.00	470.00
185.00	437.00
186.00	446.00
187.00	395.00
188.00	423.00
189.00	402.00
190.00	384.00
191.00	360.00
192.00	346.00
193.00	331.00
194.00	376.00
195.00	363.00
196.00	335.00
197.00	383.00
198.00	362.00
199.00	368.00
200.00	357.00
201.00	329.00
202.00	349.00
203.00	384.00
204.00	387.00
205.00	439.00
206.00	458.00
207.00	539.00
208.00	652.00
209.00	713.00
210.00	717.00
211.00	828.00
212.00	873.00
213.00	892.00
214.00	833.00
215.00	757.00
216.00	653.00
217.00	556.00
218.00	453.00
219.00	392.00
220.00	387.00
221.00	374.00
222.00	339.00
223.00	334.00
224.00	330.00
225.00	345.00
226.00	359.00
227.00	415.00
228.00	404.00
229.00	377.00
230.00	388.00
231.00	410.00
232.00	407.00
233.00	418.00
234.00	419.00
235.00	405.00
236.00	364.00
237.00	374.00
238.00	347.00
239.00	359.00
240.00	320.00
241.00	360.00
242.00	368.00
243.00	341.00
244.00	347.00
245.00	338.00
246.00	352.00
247.00	352.00
248.00	334.00
249.00	405.00
250.00	405.00
251.00	415.00
252.00	466.00
253.00	577.00
254.00	615.00
255.00	659.00
256.00	788.00
257.00	763.00
258.00	872.00
259.00	868.00
260.00	826.00
261.00	838.00
262.00	823.00
263.00	712.00
264.00	655.00
265.00	584.00
266.00	644.00
267.00	521.00
268.00	556.00
269.00	539.00
270.00	528.00
271.00	558.00
272.00	509.00
273.00	529.00
274.00	513.00
275.00	506.00
276.00	529.00
277.00	557.00
278.00	559.00
279.00	569.00
280.00	637.00
281.00	639.00
282.00	693.00
283.00	693.00
284.00	700.00
285.00	691.00
286.00	700.00
287.00	651.00
288.00	663.00
289.00	627.00
290.00	678.00
291.00	668.00
292.00	663.00
293.00	670.00
294.00	736.00
295.00	673.00
296.00	675.00
297.00	756.00
298.00	759.00
299.00	741.00
300.00	830.00
301.00	741.00
302.00	848.00
303.00	828.00
304.00	867.00
305.00	830.00
306.00	914.00
307.00	949.00
308.00	920.00
309.00	986.00
310.00	990.00
311.00	1006.00
312.00	1058.00
313.00	996.00
314.00	1048.00
315.00	969.00
316.00	989.00
317.00	1017.00
318.00	1026.00
319.00	1100.00
320.00	1042.00
321.00	1077.00
322.00	1063.00
323.00	1063.00
324.00	1109.00
325.00	1129.00
326.00	1161.00
327.00	1182.00
328.00	1249.00
329.00	1218.00
330.00	1228.00
331.00	1243.00
332.00	1307.00
333.00	1299.00
334.00	1401.00
335.00	1308.00
336.00	1334.00
337.00	1391.00
338.00	1486.00
339.00	1388.00
340.00	1536.00
341.00	1440.00
342.00	1545.00
343.00	1458.00
344.00	1373.00
345.00	1466.00
346.00	1522.00
347.00	1580.00
348.00	1551.00
349.00	1620.00
350.00	1585.00
351.00	1706.00
352.00	1713.00
353.00	1764.00
354.00	1933.00
355.00	2088.00
356.00	2327.00
357.00	2884.00
358.00	3744.00
359.00	4771.00
360.00	6446.00
361.00	8473.00
362.00	10741.00
363.00	13147.00
364.00	15899.00
365.00	18129.00
366.00	19518.00
367.00	19841.00
368.00	19518.00
369.00	17812.00
370.00	15866.00
371.00	13158.00
372.00	10589.00
373.00	8392.00
374.00	6503.00
375.00	5063.00
376.00	4014.00
377.00	3313.00
378.00	2911.00
379.00	2669.00
380.00	2552.00
381.00	2515.00
382.00	2500.00
383.00	2515.00
384.00	2534.00
385.00	2628.00
386.00	2763.00
387.00	2731.00
388.00	2718.00
389.00	2794.00
390.00	2811.00
391.00	2878.00
392.00	2992.00
393.00	2961.00
394.00	3178.00
395.00	3256.00
396.00	3584.00
397.00	3803.00
398.00	4073.00
399.00	4477.00
400.00	4890.00
401.00	5419.00
402.00	5909.00
403.00	6183.00
404.00	6276.00
405.00	6412.00
406.00	6270.00
407.00	5903.00
408.00	5598.00
409.00	5185.00
410.00	4921.00
411.00	4570.00
412.00	4245.00
413.00	4087.00
414.00	4003.00
415.00	3887.00
416.00	3871.00
417.00	3951.00
418.00	4046.00
419.00	3969.00
420.00	4290.00
421.00	4466.00
422.00	4552.00
423.00	4998.00
424.00	5156.00
425.00	5315.00
426.00	5585.00
427.00	5673.00
428.00	5834.00
429.00	5713.00
430.00	5655.00
431.00	5681.00
432.00	5519.00
433.00	5456.00
434.00	5129.00
435.00	4900.00
436.00	5102.00
437.00	4931.00
438.00	4921.00
439.00	4968.00
440.00	4975.00
441.00	4939.00
442.00	4927.00
443.00	4996.00
444.00	4966.00
445.00	5158.00
446.00	5141.00
447.00	5439.00
448.00	5319.00
449.00	5386.00
450.00	5495.00
451.00	5496.00
452.00	5597.00
453.00	5815.00
454.00	5815.00
455.00	6014.00
456.00	6044.00
457.00	6212.00
458.00	6312.00
459.00	6471.00
460.00	6617.00
461.00	6791.00
462.00	6991.00
463.00	7020.00
464.00	7134.00
465.00	7207.00
466.00	7332.00
467.00	7352.00
468.00	7476.00
469.00	7584.00
470.00	7431.00
471.00	7588.00
472.00	7667.00
473.00	7715.00
474.00	7738.00
475.00	7793.00
476.00	7818.00
477.00	7790.00
478.00	7866.00
479.00	8119.00
480.00	7790.00
481.00	7930.00
482.00	7856.00
483.00	7800.00
484.00	7768.00
485.00	7776.00
486.00	7677.00
487.00	7608.00
488.00	7719.00
489.00	7642.00
490.00	7646.00
491.00	7610.00
492.00	7645.00
493.00	7834.00
494.00	7754.00
495.00	7845.00
496.00	7677.00
497.00	8031.00
498.00	7992.00
499.00	8016.00
500.00	8044.00
501.00	8181.00
502.00	8212.00
503.00	8298.00
504.00	8410.00
505.00	8472.00
506.00	8437.00
507.00	8634.00
508.00	8762.00
509.00	8676.00
510.00	8830.00
511.00	8812.00
512.00	8774.00
513.00	8927.00
514.00	9108.00
515.00	9096.00
516.00	9283.00
517.00	9309.00
518.00	9302.00
519.00	9450.00
520.00	9494.00
521.00	9719.00
522.00	9703.00
523.00	9682.00
524.00	9809.00
525.00	9986.00
526.00	9955.00
527.00	10349.00
528.00	10288.00
529.00	10633.00
530.00	10567.00
531.00	10705.00
532.00	10955.00
533.00	10920.00
534.00	11118.00
535.00	11437.00
536.00	11321.00
537.00	11566.00
538.00	11559.00
539.00	11612.00
540.00	11694.00
541.00	11674.00
542.00	11847.00
543.00	12044.00
544.00	12140.00
545.00	12270.00
546.00	11992.00
547.00	12254.00
548.00	12540.00
549.00	12204.00
550.00	12302.00
551.00	12850.00
552.00	12824.00
553.00	12930.00
554.00	12724.00
555.00	12992.00
556.00	13044.00
557.00	12758.00
558.00	12854.00
559.00	13030.00
560.00	12861.00
561.00	12954.00
562.00	12987.00
563.00	13153.00
564.00	12906.00
565.00	13081.00
566.00	13049.00
567.00	13000.00
568.00	13123.00
569.00	13301.00
570.00	13341.00
571.00	13404.00
572.00	13636.00
573.00	13441.00
574.00	13470.00
575.00	13730.00
576.00	13635.00
577.00	13751.00
578.00	13705.00
579.00	13817.00
580.00	13820.00
581.00	14027.00
582.00	14010.00
583.00	14029.00
584.00	14062.00
585.00	14308.00
586.00	14137.00
587.00	14286.00
588.00	14419.00
589.00	14477.00
590.00	14426.00
591.00	14652.00
592.00	14799.00
593.00	14623.00
594.00	14824.00
595.00	15068.00
596.00	14975.00
597.00	15103.00
598.00	15407.00
599.00	15230.00
600.00	15374.00
601.00	15365.00
602.00	15490.00
603.00	15569.00
604.00	15764.00
605.00	15851.00
606.00	15725.00
607.00	16026.00
608.00	16122.00
609.00	16104.00
610.00	16208.00
611.00	16020.00
612.00	16252.00
613.00	16362.00
614.00	16482.00
615.00	16449.00
616.00	16540.00
617.00	16775.00
618.00	16822.00
619.00	16913.00
620.00	16800.00
621.00	17039.00
622.00	17103.00
623.00	17201.00
624.00	17100.00
625.00	17489.00
626.00	17417.00
627.00	17459.00
628.00	17635.00
629.00	17458.00
630.00	17742.00
631.00	17914.00
632.00	17412.00
633.00	18049.00
634.00	17966.00
635.00	18035.00
636.00	18062.00
637.00	18052.00
638.00	18384.00
639.00	18286.00
640.00	18572.00
641.00	18347.00
642.00	18509.00
643.00	18612.00
644.00	18766.00
645.00	19034.00
646.00	18994.00
647.00	18963.00
648.00	19366.00
649.00	19119.00
650.00	19201.00
651.00	19442.00
652.00	19537.00
653.00	19338.00
654.00	19341.00
655.00	19594.00
656.00	19340.00
657.00	19810.00
658.00	19775.00
659.00	20050.00
660.00	20067.00
661.00	19900.00
662.00	20223.00
663.00	19999.00
664.00	20406.00
665.00	20309.00
666.00	20536.00
667.00	20388.00
668.00	20838.00
669.00	20783.00
670.00	21279.00
671.00	21553.00
672.00	21716.00
673.00	22415.00
674.00	23103.00
675.00	23561.00
676.00	23931.00
677.00	25117.00
678.00	25550.00
679.00	26641.00
680.00	26660.00
681.00	26916.00
682.00	26806.00
683.00	27135.00
684.00	26254.00
685.00	25911.00
686.00	25389.00
687.00	24766.00
688.00	24340.00
689.00	23639.00
690.00	23403.00
691.00	22993.00
692.00	22642.00
693.00	22622.00
694.00	22560.00
695.00	22393.00
696.00	22607.00
697.00	22167.00
698.00	22476.00
699.00	22512.00
700.00	22723.00
701.00	22558.00
702.00	23128.00
703.00	22761.00
704.00	22731.00
705.00	22982.00
706.00	23295.00
707.00	22972.00
708.00	22994.00
709.00	23184.00
710.00	23402.00
711.00	23319.00
712.00	23347.00
713.00	23106.00
714.00	23333.00
715.00	23774.00
716.00	23669.00
717.00	23639.00
718.00	23522.00
719.00	23787.00
720.00	23976.00
721.00	23906.00
722.00	23929.00
723.00	24270.00
724.00	23860.00
725.00	24063.00
726.00	24317.00
727.00	24145.00
728.00	24314.00
729.00	24538.00
730.00	24668.00
731.00	24355.00
732.00	24420.00
733.00	24596.00
734.00	24771.00
735.00	25133.00
736.00	24503.00
737.00	24863.00
738.00	24881.00
739.00	24654.00
740.00	24805.00
741.00	24963.00
742.00	25006.00
743.00	25199.00
744.00	25113.00
745.00	25079.00
746.00	25011.00
747.00	25449.00
748.00	25368.00
749.00	25499.00
750.00	25542.00
751.00	25593.00
752.00	25488.00
753.00	25625.00
754.00	26229.00
755.00	26100.00
756.00	26215.00
757.00	26535.00
758.00	26688.00
759.00	26710.00
760.00	26655.00
761.00	27088.00
762.00	26947.00
763.00	26730.00
764.00	26831.00
765.00	26913.00
766.00	26747.00
767.00	26577.00
768.00	26340.00
769.00	26509.00
770.00	26521.00
771.00	26518.00
772.00	26658.00
773.00	26588.00
774.00	26205.00
775.00	26531.00
776.00	26172.00
777.00	26527.00
778.00	26358.00
779.00	26350.00
780.00	26254.00
781.00	26621.00
782.00	26542.00
783.00	26551.00
784.00	26536.00
785.00	26884.00
786.00	26679.00
787.00	26882.00
788.00	26987.00
789.00	26661.00
790.00	26708.00
791.00	26749.00
792.00	26626.00
793.00	26769.00
794.00	26984.00
795.00	27294.00
796.00	27151.00
797.00	27070.00
798.00	27352.00
799.00	27306.00
800.00	27170.00
801.00	27010.00
802.00	26945.00
803.00	27722.00
804.00	27322.00
805.00	27728.00
806.00	27354.00
807.00	27478.00
808.00	27854.00
809.00	27586.00
810.00	28241.00
811.00	28104.00
812.00	27745.00
813.00	27522.00
814.00	27989.00
815.00	27843.00
816.00	27667.00
817.00	28007.00
818.00	27838.00
819.00	27874.00
820.00	27922.00
821.00	27648.00
822.00	27723.00
823.00	27738.00
824.00	27762.00
825.00	27809.00
826.00	27703.00
827.00	27787.00
828.00	28146.00
829.00	27842.00
830.00	27729.00
831.00	28032.00
832.00	27814.00
833.00	28053.00
834.00	27835.00
835.00	27989.00
836.00	28262.00
837.00	28344.00
838.00	28018.00
839.00	28051.00
840.00	28268.00
841.00	28405.00
842.00	28339.00
843.00	28317.00
844.00	28178.00
845.00	28206.00
846.00	28389.00
847.00	28430.00
848.00	28426.00
849.00	28828.00
850.00	28437.00
851.00	28620.00
852.00	29029.00
853.00	28728.00
854.00	28657.00
855.00	28716.00
856.00	29097.00
857.00	29220.00
858.00	29043.00
859.00	29023.00
860.00	28944.00
861.00	28892.00
862.00	29280.00
863.00	29161.00
864.00	29120.00
865.00	29330.00
866.00	29456.00
867.00	29569.00
868.00	29607.00
869.00	29448.00
870.00	29527.00
871.00	29924.00
872.00	29837.00
873.00	29790.00
874.00	30172.00
875.00	30127.00
876.00	30359.00
877.00	30432.00
878.00	30277.00
879.00	30076.00
880.00	30664.00
881.00	30596.00
882.00	31018.00
883.00	30959.00
884.00	30939.00
885.00	30966.00
886.00	31460.00
887.00	31496.00
888.00	32139.00
889.00	32163.00
890.00	31994.00
891.00	32179.00
892.00	32493.00
893.00	32902.00
894.00	33097.00
895.00	33265.00
896.00	33860.00
897.00	33882.00
898.00	34343.00
899.00	34581.00
900.00	35105.00
901.00	35762.00
902.00	36081.00
903.00	36463.00
904.00	37058.00
905.00	37140.00
906.00	38619.00
907.00	39199.00
908.00	39077.00
909.00	40312.00
910.00	41481.00
911.00	42343.00
912.00	43566.00
913.00	45271.00
914.00	46028.00
915.00	47960.00
916.00	50095.00
917.00	51424.00
918.00	53987.00
919.00	56399.00
920.00	59127.00
921.00	61751.00
922.00	65273.00
923.00	68036.00
924.00	72524.00
925.00	75994.00
926.00	80040.00
927.00	84166.00
928.00	88874.00
929.00	93623.00
930.00	98205.00
931.00	102976.00
932.00	106734.00
933.00	111254.00
934.00	115501.00
935.00	118652.00
936.00	121919.00
937.00	124979.00
938.00	126611.00
939.00	128078.00
940.00	128379.00
941.00	129415.00
942.00	129304.00
943.00	128146.00
944.00	126394.00
945.00	124825.00
946.00	122445.00
947.00	118943.00
948.00	115868.00
949.00	111714.00
950.00	107729.00
951.00	102289.00
952.00	98632.00
953.00	93835.00
954.00	89022.00
955.00	84712.00
956.00	79400.00
957.00	75194.00
958.00	70981.00
959.00	66530.00
960.00	63047.00
961.00	59484.00
962.00	55757.00
963.00	52859.00
964.00	49983.00
965.00	47441.00
966.00	44569.00
967.00	42505.00
968.00	40347.00
969.00	38548.00
970.00	37445.00
971.00	35990.00
972.00	34497.00
973.00	33252.00
974.00	32169.00
975.00	31617.00
976.00	30879.00
977.00	29860.00
978.00	29886.00
979.00	29714.00
980.00	29484.00
981.00	29454.00
982.00	30035.00
983.00	30445.00
984.00	31732.00
985.00	32371.00
986.00	33888.00
987.00	35467.00
988.00	38063.00
989.00	40191.00
990.00	42900.00
991.00	45105.00
992.00	47786.00
993.00	50168.00
994.00	51940.00
995.00	53417.00
996.00	54321.00
997.00	54649.00
998.00	54454.00
999.00	53267.00
1000.00	51437.00
1001.00	48874.00
1002.00	46444.00
1003.00	43556.00
1004.00	40174.00
1005.00	37180.00
1006.00	34438.00
1007.00	31995.00
1008.00	29641.00
1009.00	27613.00
1010.00	25896.00
1011.00	24743.00
1012.00	23909.00
1013.00	23411.00
1014.00	22935.00
1015.00	22303.00
1016.00	22537.00
1017.00	22048.00
1018.00	22026.00
1019.00	22203.00
1020.00	22283.00
1021.00	22614.00
1022.00	22322.00
1023.00	22571.00
1024.00	22817.00
